[Comments]
Sample name	
Comment
User
Division
Company	ETH Zurich

[Detailed Information]
Creation date	31/05/2016 15:50

Data array type	Linear data array
Horizontal axis	Wavenumber [cm-1]
Vertical axis	%T
Start	349.053 cm-1
End	7800.65 cm-1
Data interval	0.964233 cm-1
Data points	7729    

[Measurement Information]
Model Name	FT/IR-4100typeA
Serial Number	B111161016

Measurement Date	31/05/2016 15:48

Light Source	Standard
Detector	TGS
Accumulation	32
Resolution	4 cm-1
Zero Filling	On
Apodization	Cosine
Gain	Auto (2)
Aperture	Auto (7.1 mm)
Scanning Speed	Auto (2 mm/sec)
Filter	Auto (30000 Hz)
TITLE	
DATA TYPE	INFRARED SPECTRUM
ORIGIN	JASCO
OWNER	
DATE	16/05/31
TIME	16:50:04
SPECTROMETER/DATA SYSTEM	
LOCALE	8192
RESOLUTION	
DELTAX	0.964233
XUNITS	1/CM
YUNITS	TRANSMITTANCE
FIRSTX	  349.0525
LASTX	 7800.6488
NPOINTS	    7729
FIRSTY	    38.42017
MAXY	    49.87555
MINY	    34.89141
XYDATA
349.0525	38.4202
350.0168	36.9809
350.9810	36.2783
351.9452	36.6872
352.9095	38.0036
353.8737	39.7875
354.8379	41.7907
355.8022	43.9598
356.7664	46.1736
357.7306	48.1095
358.6949	49.4018
359.6591	49.8755
360.6233	49.6286
361.5876	48.9656
362.5518	48.2573
363.5160	47.7764
364.4803	47.5875
365.4445	47.5682
366.4087	47.5399
367.3730	47.4114
368.3372	47.2412
369.3014	47.1718
370.2657	47.2835
371.2299	47.5105
372.1941	47.687
373.1584	47.6676
374.1226	47.4573
375.0868	47.2724
376.0511	47.3733
377.0153	47.7629
377.9795	48.1961
378.9438	48.4468
379.9080	48.4417
380.8722	48.2388
381.8365	47.9734
382.8007	47.7949
383.7649	47.7826
384.7292	47.8785
385.6934	47.9359
386.6576	47.8759
387.6219	47.7652
388.5861	47.7383
389.5503	47.8792
390.5146	48.16
391.4788	48.4503
392.4430	48.5826
393.4073	48.4441
394.3715	48.054
395.3357	47.5927
396.3000	47.3576
397.2642	47.5891
398.2284	48.2192
399.1927	48.8764
400.1569	49.2444
401.1211	49.2797
402.0854	49.1064
403.0496	48.8659
404.0138	48.6513
404.9781	48.499
405.9423	48.4003
406.9065	48.3247
407.8708	48.2464
408.8350	48.1573
409.7992	48.0616
410.7635	47.9605
411.7277	47.8439
412.6919	47.6955
413.6562	47.506
414.6204	47.281
415.5846	47.0423
416.5489	46.8308
417.5131	46.7078
418.4773	46.7294
419.4416	46.8832
420.4058	47.0716
421.3700	47.2004
422.3343	47.2432
423.2985	47.2201
424.2627	47.1645
425.2270	47.1066
426.1912	47.0673
427.1554	47.0542
428.1197	47.0618
429.0839	47.0767
430.0481	47.0861
431.0124	47.0844
431.9766	47.0771
432.9408	47.0773
433.9051	47.0956
434.8693	47.1301
435.8335	47.1626
436.7978	47.1677
437.7620	47.1282
438.7262	47.0446
439.6905	46.9323
440.6547	46.8099
441.6189	46.6874
442.5832	46.56
443.5474	46.4122
444.5116	46.2311
445.4759	46.0211
446.4401	45.8054
447.4043	45.6182
448.3686	45.4923
449.3328	45.449
450.2970	45.4881
451.2613	45.5826
452.2255	45.6832
453.1897	45.7346
454.1540	45.6987
455.1182	45.5723
456.0824	45.3944
457.0467	45.2342
458.0109	45.1543
458.9751	45.1661
459.9394	45.221
460.9036	45.2501
461.8678	45.2088
462.8321	45.091
463.7963	44.9186
464.7605	44.7234
465.7248	44.5327
466.6890	44.3639
467.6532	44.2304
468.6175	44.149
469.5817	44.1391
470.5459	44.208
471.5102	44.3307
472.4744	44.4476
473.4386	44.4953
474.4029	44.4519
475.3671	44.3526
476.3313	44.2633
477.2956	44.2421
478.2598	44.3103
479.2240	44.4453
480.1883	44.5938
481.1525	44.7012
482.1167	44.7384
483.0810	44.7148
484.0452	44.6673
485.0094	44.6358
485.9737	44.6397
486.9379	44.6707
487.9021	44.7061
488.8664	44.7256
489.8306	44.7236
490.7948	44.7103
491.7591	44.7047
492.7233	44.7231
493.6875	44.7701
494.6518	44.8376
495.6160	44.9116
496.5802	44.9803
497.5445	45.0371
498.5087	45.0797
499.4729	45.1066
500.4372	45.1161
501.4014	45.1087
502.3656	45.0912
503.3299	45.0766
504.2941	45.0796
505.2583	45.1087
506.2226	45.1619
507.1868	45.2275
508.1510	45.2884
509.1153	45.3294
510.0795	45.3427
511.0437	45.3301
512.0080	45.3005
512.9722	45.2654
513.9365	45.2349
514.9007	45.2149
515.8649	45.2056
516.8292	45.2033
517.7934	45.2043
518.7576	45.2085
519.7219	45.2208
520.6861	45.2461
521.6503	45.2857
522.6146	45.3345
523.5788	45.3831
524.5430	45.4216
525.5073	45.4437
526.4715	45.4497
527.4357	45.4444
528.4000	45.4327
529.3642	45.418
530.3284	45.4036
531.2927	45.3959
532.2569	45.4035
533.2211	45.433
534.1854	45.4831
535.1496	45.5417
536.1138	45.5898
537.0781	45.611
538.0423	45.5999
539.0065	45.5658
539.9708	45.5284
540.9350	45.5082
541.8992	45.5161
542.8635	45.5484
543.8277	45.5886
544.7919	45.6146
545.7562	45.61
546.7204	45.572
547.6846	45.5134
548.6489	45.4555
549.6131	45.4173
550.5773	45.4065
551.5416	45.4172
552.5058	45.434
553.4700	45.441
554.4343	45.4292
555.3985	45.4001
556.3627	45.3641
557.3270	45.3341
558.2912	45.3186
559.2554	45.3182
560.2197	45.3256
561.1839	45.3305
562.1481	45.3246
563.1124	45.3053
564.0766	45.2761
565.0408	45.244
566.0051	45.2164
566.9693	45.1982
567.9335	45.1918
568.8978	45.196
569.8620	45.2068
570.8262	45.2176
571.7905	45.221
572.7547	45.2112
573.7189	45.1869
574.6832	45.1532
575.6474	45.121
576.6116	45.1019
577.5759	45.1025
578.5401	45.1197
579.5043	45.1414
580.4686	45.1516
581.4328	45.1378
582.3970	45.0977
583.3613	45.0409
584.3255	44.9855
585.2897	44.9499
586.2540	44.9443
587.2182	44.966
588.1824	45.0005
589.1467	45.0278
590.1109	45.031
591.0751	45.0037
592.0394	44.9526
593.0036	44.8943
593.9678	44.847
594.9321	44.8222
595.8963	44.8213
596.8605	44.8377
597.8248	44.8604
598.7890	44.8777
599.7532	44.8814
600.7175	44.8688
601.6817	44.8441
602.6459	44.8167
603.6102	44.798
604.5744	44.7956
605.5386	44.8099
606.5029	44.8327
607.4671	44.851
608.4313	44.8531
609.3956	44.8359
610.3598	44.8068
611.3240	44.7793
612.2883	44.7657
613.2525	44.77
614.2167	44.7853
615.1810	44.7977
616.1452	44.7935
617.1094	44.7671
618.0737	44.7243
619.0379	44.6797
620.0021	44.649
620.9664	44.6416
621.9306	44.658
622.8948	44.6897
623.8591	44.7224
624.8233	44.7415
625.7875	44.7375
626.7518	44.7105
627.7160	44.6705
628.6802	44.6324
629.6445	44.6093
630.6087	44.6076
631.5729	44.6244
632.5372	44.6496
633.5014	44.6708
634.4656	44.6782
635.4299	44.6677
636.3941	44.642
637.3583	44.6087
638.3226	44.5773
639.2868	44.5564
640.2510	44.5511
641.2153	44.5611
642.1795	44.5815
643.1437	44.6048
644.1080	44.6251
645.0722	44.6406
646.0364	44.6534
647.0007	44.6663
647.9649	44.6805
648.9291	44.695
649.8934	44.7079
650.8576	44.7192
651.8218	44.73
652.7861	44.7404
653.7503	44.7476
654.7145	44.7462
655.6788	44.733
656.6430	44.7094
657.6072	44.6818
658.5715	44.6575
659.5357	44.6412
660.4999	44.6342
661.4642	44.6359
662.4284	44.6461
663.3926	44.6653
664.3569	44.6927
665.3211	44.725
666.2853	44.7537
667.2496	44.7662
668.2138	44.7569
669.1780	44.741
670.1423	44.7394
671.1065	44.7534
672.0707	44.7692
673.0350	44.7719
673.9992	44.7529
674.9634	44.7145
675.9277	44.6718
676.8919	44.6462
677.8561	44.6515
678.8204	44.6856
679.7846	44.7317
680.7488	44.7679
681.7131	44.7782
682.6773	44.7595
683.6415	44.7228
684.6058	44.6866
685.5700	44.6675
686.5342	44.6729
687.4985	44.6968
688.4627	44.7241
689.4269	44.7374
690.3912	44.7266
691.3554	44.6924
692.3196	44.645
693.2839	44.5985
694.2481	44.5649
695.2123	44.5505
696.1766	44.5549
697.1408	44.5723
698.1050	44.5938
699.0693	44.6099
700.0335	44.6133
700.9977	44.6012
701.9620	44.5761
702.9262	44.5445
703.8904	44.5147
704.8547	44.4934
705.8189	44.4838
706.7831	44.4856
707.7474	44.4955
708.7116	44.509
709.6758	44.5216
710.6401	44.5294
711.6043	44.5311
712.5685	44.5291
713.5328	44.529
714.4970	44.5373
715.4612	44.5579
716.4255	44.5882
717.3897	44.6189
718.3539	44.6371
719.3182	44.6326
720.2824	44.6039
721.2466	44.5609
722.2109	44.5205
723.1751	44.4986
724.1393	44.5027
725.1036	44.5306
726.0678	44.5717
727.0320	44.6111
727.9963	44.6355
728.9605	44.6375
729.9247	44.6189
730.8890	44.589
731.8532	44.5621
732.8174	44.5507
733.7817	44.5606
734.7459	44.5877
735.7101	44.6194
736.6744	44.6403
737.6386	44.6397
738.6028	44.6171
739.5671	44.5823
740.5313	44.5505
741.4955	44.5352
742.4598	44.5412
743.4240	44.5634
744.3882	44.5892
745.3525	44.6048
746.3167	44.601
747.2809	44.577
748.2452	44.5403
749.2094	44.5036
750.1736	44.4795
751.1379	44.4757
752.1021	44.4916
753.0663	44.5194
754.0306	44.548
754.9948	44.5673
755.9590	44.5734
756.9233	44.5685
757.8875	44.5591
758.8517	44.5527
759.8160	44.5539
760.7802	44.5637
761.7444	44.5792
762.7087	44.5955
763.6729	44.6067
764.6371	44.6083
765.6014	44.5984
766.5656	44.5793
767.5298	44.5576
768.4941	44.5415
769.4583	44.5378
770.4225	44.5477
771.3868	44.565
772.3510	44.5791
773.3152	44.5788
774.2795	44.5583
775.2437	44.5205
776.2079	44.4755
777.1722	44.437
778.1364	44.4155
779.1006	44.4149
780.0649	44.4306
781.0291	44.4519
781.9933	44.4671
782.9576	44.4673
783.9218	44.4503
784.8860	44.4208
785.8503	44.3886
786.8145	44.3646
787.7787	44.3567
788.7430	44.3662
789.7072	44.3867
790.6714	44.4067
791.6357	44.4138
792.5999	44.4002
793.5641	44.366
794.5284	44.3198
795.4926	44.2751
796.4568	44.2449
797.4211	44.2362
798.3853	44.2476
799.3495	44.2698
800.3138	44.2897
801.2780	44.296
802.2422	44.2837
803.2065	44.2564
804.1707	44.2244
805.1349	44.2008
806.0992	44.1956
807.0634	44.2121
808.0276	44.2449
808.9919	44.2833
809.9561	44.3152
810.9203	44.3324
811.8846	44.3337
812.8488	44.3245
813.8130	44.3145
814.7773	44.3132
815.7415	44.326
816.7057	44.3516
817.6700	44.3825
818.6342	44.4081
819.5984	44.4192
820.5627	44.4126
821.5269	44.3927
822.4911	44.3692
823.4554	44.3531
824.4196	44.3506
825.3839	44.3608
826.3481	44.3766
827.3123	44.389
828.2766	44.3916
829.2408	44.3834
830.2050	44.3678
831.1693	44.3507
832.1335	44.3369
833.0977	44.3291
834.0620	44.327
835.0262	44.3285
835.9904	44.3303
836.9547	44.3291
837.9189	44.3224
838.8831	44.31
839.8474	44.2944
840.8116	44.2812
841.7758	44.2775
842.7401	44.2892
843.7043	44.3181
844.6685	44.361
845.6328	44.4096
846.5970	44.4537
847.5612	44.4848
848.5255	44.4989
849.4897	44.4978
850.4539	44.4883
851.4182	44.4785
852.3824	44.4755
853.3466	44.4822
854.3109	44.4969
855.2751	44.5139
856.2393	44.5258
857.2036	44.5258
858.1678	44.5104
859.1320	44.4818
860.0963	44.4479
861.0605	44.4203
862.0247	44.4095
862.9890	44.4196
863.9532	44.4455
864.9174	44.474
865.8817	44.4898
866.8459	44.4825
867.8101	44.4519
868.7744	44.4077
869.7386	44.3644
870.7028	44.3344
871.6671	44.3224
872.6313	44.3246
873.5955	44.3312
874.5598	44.3316
875.5240	44.3188
876.4882	44.2918
877.4525	44.2557
878.4167	44.2188
879.3809	44.1893
880.3452	44.1722
881.3094	44.167
882.2736	44.1679
883.2379	44.1665
884.2021	44.1558
885.1663	44.133
886.1306	44.101
887.0948	44.0666
888.0590	44.0369
889.0233	44.0157
889.9875	44.0018
890.9517	43.9897
891.9160	43.9719
892.8802	43.9426
893.8444	43.8992
894.8087	43.8438
895.7729	43.7816
896.7371	43.7194
897.7014	43.6639
898.6656	43.6198
899.6298	43.5892
900.5941	43.5718
901.5583	43.5644
902.5225	43.5627
903.4868	43.5621
904.4510	43.5596
905.4152	43.555
906.3795	43.551
907.3437	43.5525
908.3079	43.5642
909.2722	43.5882
910.2364	43.6225
911.2006	43.662
912.1649	43.6999
913.1291	43.7309
914.0933	43.7535
915.0576	43.77
916.0218	43.7852
916.9860	43.8047
917.9503	43.8318
918.9145	43.8664
919.8787	43.9048
920.8430	43.9408
921.8072	43.9684
922.7714	43.9839
923.7357	43.9881
924.6999	43.9861
925.6641	43.9854
926.6284	43.9926
927.5926	44.0102
928.5568	44.0354
929.5211	44.061
930.4853	44.0784
931.4495	44.0812
932.4138	44.068
933.3780	44.043
934.3422	44.0146
935.3065	43.9922
936.2707	43.9825
937.2349	43.9867
938.1992	43.9997
939.1634	44.0121
940.1276	44.0143
941.0919	44.0013
942.0561	43.975
943.0203	43.9438
943.9846	43.9183
944.9488	43.9062
945.9130	43.9087
946.8773	43.92
947.8415	43.9308
948.8057	43.9322
949.7700	43.9205
950.7342	43.8974
951.6984	43.8697
952.6627	43.8454
953.6269	43.8311
954.5911	43.829
955.5554	43.8363
956.5196	43.8469
957.4838	43.853
958.4481	43.8486
959.4123	43.8315
960.3765	43.8041
961.3408	43.7724
962.3050	43.7433
963.2692	43.7216
964.2335	43.7079
965.1977	43.6979
966.1619	43.6843
967.1262	43.6596
968.0904	43.6192
969.0546	43.5638
970.0189	43.4994
970.9831	43.4356
971.9473	43.3824
972.9116	43.3467
973.8758	43.3305
974.8400	43.3303
975.8043	43.3388
976.7685	43.3478
977.7327	43.3509
978.6970	43.3454
979.6612	43.3326
980.6254	43.3167
981.5897	43.3021
982.5539	43.2917
983.5181	43.2855
984.4824	43.2807
985.4466	43.2729
986.4108	43.2574
987.3751	43.231
988.3393	43.1931
989.3035	43.146
990.2678	43.0943
991.2320	43.043
992.1962	42.9962
993.1605	42.9546
994.1247	42.9163
995.0889	42.8779
996.0532	42.8368
997.0174	42.7934
997.9816	42.7509
998.9459	42.7144
999.9101	42.6885
1000.8743	42.675
1001.8386	42.6723
1002.8028	42.6752
1003.7670	42.6771
1004.7313	42.6714
1005.6955	42.6539
1006.6597	42.624
1007.6240	42.5852
1008.5882	42.5436
1009.5524	42.5054
1010.5167	42.4742
1011.4809	42.4492
1012.4451	42.4258
1013.4094	42.3979
1014.3736	42.3614
1015.3378	42.3158
1016.3021	42.2646
1017.2663	42.2139
1018.2305	42.1693
1019.1948	42.1342
1020.1590	42.1081
1021.1232	42.0876
1022.0875	42.0673
1023.0517	42.0422
1024.0160	42.0087
1024.9802	41.966
1025.9445	41.9162
1026.9087	41.8636
1027.8729	41.8127
1028.8372	41.7672
1029.8014	41.7277
1030.7656	41.6919
1031.7299	41.6555
1032.6941	41.6137
1033.6583	41.5631
1034.6226	41.5035
1035.5868	41.4375
1036.5510	41.3699
1037.5153	41.3061
1038.4795	41.2496
1039.4437	41.201
1040.4080	41.1574
1041.3722	41.1138
1042.3364	41.0647
1043.3007	41.0067
1044.2649	40.9399
1045.2291	40.8685
1046.1934	40.7986
1047.1576	40.7365
1048.1218	40.685
1049.0861	40.6425
1050.0503	40.6033
1051.0145	40.5599
1051.9788	40.5063
1052.9430	40.4409
1053.9072	40.3668
1054.8715	40.2907
1055.8357	40.22
1056.7999	40.1599
1057.7642	40.111
1058.7284	40.0696
1059.6926	40.0291
1060.6569	39.9831
1061.6211	39.9275
1062.5853	39.8631
1063.5496	39.7945
1064.5138	39.7288
1065.4780	39.6723
1066.4423	39.6281
1067.4065	39.5941
1068.3707	39.5646
1069.3350	39.5322
1070.2992	39.4911
1071.2634	39.4393
1072.2277	39.3789
1073.1919	39.3145
1074.1561	39.2513
1075.1204	39.1927
1076.0846	39.1395
1077.0488	39.0896
1078.0131	39.0392
1078.9773	38.9848
1079.9415	38.9242
1080.9058	38.8585
1081.8700	38.7915
1082.8342	38.7291
1083.7985	38.6765
1084.7627	38.636
1085.7269	38.6065
1086.6912	38.5836
1087.6554	38.562
1088.6196	38.5368
1089.5839	38.5059
1090.5481	38.4692
1091.5123	38.4295
1092.4766	38.3907
1093.4408	38.3571
1094.4050	38.3319
1095.3693	38.3158
1096.3335	38.3068
1097.2977	38.3013
1098.2620	38.2954
1099.2262	38.2877
1100.1904	38.2804
1101.1547	38.2784
1102.1189	38.2881
1103.0831	38.314
1104.0474	38.358
1105.0116	38.4177
1105.9758	38.4881
1106.9401	38.5631
1107.9043	38.6376
1108.8685	38.7094
1109.8328	38.7793
1110.7970	38.8508
1111.7612	38.928
1112.7255	39.0134
1113.6897	39.1069
1114.6539	39.2049
1115.6182	39.3021
1116.5824	39.393
1117.5466	39.4741
1118.5109	39.5451
1119.4751	39.6083
1120.4393	39.6676
1121.4036	39.7272
1122.3678	39.7897
1123.3320	39.8553
1124.2963	39.9216
1125.2605	39.9847
1126.2247	40.0402
1127.1890	40.0852
1128.1532	40.1202
1129.1174	40.1489
1130.0817	40.177
1131.0459	40.2098
1132.0101	40.2493
1132.9744	40.2932
1133.9386	40.3353
1134.9028	40.3686
1135.8671	40.388
1136.8313	40.3927
1137.7955	40.3868
1138.7598	40.3777
1139.7240	40.3733
1140.6882	40.3798
1141.6525	40.3995
1142.6167	40.4307
1143.5809	40.468
1144.5452	40.5048
1145.5094	40.5357
1146.4736	40.5582
1147.4379	40.5742
1148.4021	40.5886
1149.3663	40.6071
1150.3306	40.6335
1151.2948	40.668
1152.2590	40.7073
1153.2233	40.7461
1154.1875	40.7797
1155.1517	40.8055
1156.1160	40.8235
1157.0802	40.8366
1158.0444	40.8486
1159.0087	40.8632
1159.9729	40.8821
1160.9371	40.9044
1161.9014	40.927
1162.8656	40.9457
1163.8298	40.9571
1164.7941	40.9614
1165.7583	40.962
1166.7225	40.9652
1167.6868	40.9775
1168.6510	41.003
1169.6152	41.0416
1170.5795	41.0891
1171.5437	41.1386
1172.5079	41.1832
1173.4722	41.2185
1174.4364	41.2434
1175.4006	41.2608
1176.3649	41.2753
1177.3291	41.2919
1178.2933	41.3135
1179.2576	41.3401
1180.2218	41.3695
1181.1860	41.3981
1182.1503	41.4231
1183.1145	41.4436
1184.0787	41.4614
1185.0430	41.4803
1186.0072	41.5043
1186.9714	41.5355
1187.9357	41.5737
1188.8999	41.6153
1189.8641	41.6554
1190.8284	41.6894
1191.7926	41.7147
1192.7568	41.7319
1193.7211	41.7443
1194.6853	41.7564
1195.6495	41.7722
1196.6138	41.7935
1197.5780	41.8194
1198.5422	41.847
1199.5065	41.8723
1200.4707	41.892
1201.4349	41.9053
1202.3992	41.9136
1203.3634	41.9206
1204.3276	41.9305
1205.2919	41.9465
1206.2561	41.9692
1207.2203	41.9963
1208.1846	42.0235
1209.1488	42.0458
1210.1130	42.0597
1211.0773	42.0645
1212.0415	42.0628
1213.0057	42.0596
1213.9700	42.06
1214.9342	42.0681
1215.8984	42.0849
1216.8627	42.1084
1217.8269	42.1345
1218.7911	42.1582
1219.7554	42.1758
1220.7196	42.1863
1221.6838	42.1914
1222.6481	42.1951
1223.6123	42.2021
1224.5765	42.2156
1225.5408	42.236
1226.5050	42.2607
1227.4692	42.2852
1228.4335	42.3047
1229.3977	42.3171
1230.3619	42.3229
1231.3262	42.326
1232.2904	42.3314
1233.2546	42.3432
1234.2189	42.3631
1235.1831	42.3893
1236.1473	42.4178
1237.1116	42.4434
1238.0758	42.4623
1239.0400	42.4735
1240.0043	42.4791
1240.9685	42.4839
1241.9327	42.4931
1242.8970	42.5103
1243.8612	42.536
1244.8254	42.5669
1245.7897	42.5979
1246.7539	42.6233
1247.7181	42.6401
1248.6824	42.6482
1249.6466	42.6506
1250.6108	42.6523
1251.5751	42.6584
1252.5393	42.6722
1253.5035	42.6948
1254.4678	42.724
1255.4320	42.7559
1256.3962	42.7857
1257.3605	42.8101
1258.3247	42.829
1259.2889	42.8454
1260.2532	42.8646
1261.2174	42.8915
1262.1816	42.928
1263.1459	42.9716
1264.1101	43.0169
1265.0743	43.0576
1266.0386	43.0893
1267.0028	43.111
1267.9670	43.1252
1268.9313	43.1362
1269.8955	43.1485
1270.8597	43.1647
1271.8240	43.1851
1272.7882	43.2078
1273.7524	43.2293
1274.7167	43.2462
1275.6809	43.2562
1276.6451	43.2593
1277.6094	43.2578
1278.5736	43.2563
1279.5378	43.2593
1280.5021	43.2701
1281.4663	43.289
1282.4305	43.313
1283.3948	43.3371
1284.3590	43.356
1285.3232	43.3662
1286.2875	43.3674
1287.2517	43.3633
1288.2159	43.3597
1289.1802	43.3624
1290.1444	43.3746
1291.1086	43.3949
1292.0729	43.4182
1293.0371	43.4376
1294.0013	43.4481
1294.9656	43.4481
1295.9298	43.4406
1296.8940	43.431
1297.8583	43.4247
1298.8225	43.4244
1299.7867	43.4294
1300.7510	43.4362
1301.7152	43.4399
1302.6794	43.4369
1303.6437	43.4258
1304.6079	43.4084
1305.5721	43.3895
1306.5364	43.3753
1307.5006	43.3706
1308.4648	43.3768
1309.4291	43.3907
1310.3933	43.4059
1311.3575	43.416
1312.3218	43.417
1313.2860	43.4095
1314.2502	43.3974
1315.2145	43.3856
1316.1787	43.3774
1317.1429	43.3745
1318.1072	43.3767
1319.0714	43.3832
1320.0356	43.3923
1320.9999	43.4015
1321.9641	43.408
1322.9283	43.4097
1323.8926	43.4068
1324.8568	43.4019
1325.8210	43.3992
1326.7853	43.402
1327.7495	43.4108
1328.7137	43.4222
1329.6780	43.4316
1330.6422	43.4355
1331.6064	43.4344
1332.5707	43.432
1333.5349	43.4331
1334.4991	43.4392
1335.4634	43.4467
1336.4276	43.4478
1337.3918	43.4344
1338.3561	43.4041
1339.3203	43.3644
1340.2845	43.3298
1341.2488	43.312
1342.2130	43.3136
1343.1772	43.329
1344.1415	43.3498
1345.1057	43.3689
1346.0699	43.3819
1347.0342	43.3875
1347.9984	43.3857
1348.9626	43.3777
1349.9269	43.3645
1350.8911	43.3467
1351.8553	43.3244
1352.8196	43.2972
1353.7838	43.267
1354.7480	43.2391
