[Comments]
Sample name	2462
Comment
User
Division
Company	ETHZ

[Detailed Information]
Creation date	18/01/2021 10:08
Date modified	18/01/2021 10:08

Data array type	Linear data array
Horizontal axis	Wavenumber [cm-1]
Vertical axis	%T
Start	499.955 cm-1
End	4500.08 cm-1
Data interval	0.482117 cm-1
Data points	8298    

[Measurement Information]
Model Name	FT/IR-4100typeA
Serial Number	B111161016

Accessory	ATR PRO ONE
Accessory S/N	B131461809
Incident angle	45 deg

Measurement Date	18/01/2021 09:13

Light Source	Standard
Detector	TGS
Accumulation	32
Resolution	2 cm-1
Zero Filling	On
Apodization	Cosine
Gain	Auto (32)
Aperture	Auto (5 mm)
Scanning Speed	Auto (2 mm/sec)
Filter	Auto (30000 Hz)
TITLE	2462
DATA TYPE	INFRARED SPECTRUM
ORIGIN	JASCO
OWNER	
DATE	21/01/18
TIME	10:08:34
SPECTROMETER/DATA SYSTEM	
LOCALE	8192
RESOLUTION	
DELTAX	0.482117
XUNITS	1/CM
YUNITS	TRANSMITTANCE
FIRSTX	  499.9551
LASTX	 4500.0776
NPOINTS	    8298
FIRSTY	    87.70611
MAXY	   102.01318
MINY	    47.16140
XYDATA
499.9550	87.7061
500.4372	86.91
500.9193	86.0269
501.4014	85.1954
501.8835	84.5814
502.3656	84.3237
502.8477	84.4641
503.3299	84.9184
503.8120	85.5178
504.2941	86.0834
504.7762	86.4841
505.2583	86.6661
505.7404	86.6585
506.2226	86.5545
506.7047	86.4594
507.1868	86.4248
507.6689	86.4163
508.1510	86.3435
508.6331	86.1199
509.1153	85.7075
509.5974	85.1309
510.0795	84.4698
510.5616	83.8348
511.0437	83.3237
511.5258	82.9722
512.0080	82.7238
512.4901	82.441
512.9722	81.96
513.4543	81.1714
513.9365	80.091
514.4186	78.876
514.9007	77.7702
515.3828	77.0137
515.8649	76.7604
516.3470	77.0232
516.8292	77.6573
517.3113	78.4127
517.7934	79.0513
518.2755	79.4564
518.7576	79.6545
519.2397	79.7523
519.7219	79.8467
520.2040	79.9535
520.6861	79.9888
521.1682	79.8153
521.6503	79.3363
522.1324	78.5804
522.6146	77.7173
523.0967	76.983
523.5788	76.5527
524.0609	76.4447
524.5430	76.5037
525.0251	76.4623
525.5073	76.0577
525.9894	75.1599
526.4715	73.826
526.9536	72.2241
527.4357	70.5055
527.9178	68.756
528.4000	67.0453
528.8821	65.4968
529.3642	64.3003
529.8463	63.6497
530.3284	63.6496
530.8105	64.2646
531.2927	65.3419
531.7748	66.6687
532.2569	68.0165
532.7390	69.1631
533.2211	69.9142
533.7032	70.1458
534.1854	69.8564
534.6675	69.1977
535.1496	68.4547
535.6317	67.9729
536.1138	68.0604
536.5959	68.9019
537.0781	70.5127
537.5602	72.7414
538.0423	75.3179
538.5244	77.93
539.0065	80.3081
539.4886	82.29
539.9708	83.8452
540.4529	85.048
540.9350	86.0151
541.4171	86.838
541.8992	87.5498
542.3813	88.1374
542.8635	88.5811
543.3456	88.8851
543.8277	89.0788
544.3098	89.1946
544.7919	89.2475
545.2740	89.2361
545.7562	89.1663
546.2383	89.0761
546.7204	89.0367
547.2025	89.1206
547.6846	89.3559
548.1667	89.6954
548.6489	90.0239
549.1310	90.2054
549.6131	90.1523
550.0952	89.8804
550.5773	89.5143
551.0594	89.2311
551.5416	89.1676
552.0237	89.3459
552.5058	89.659
552.9879	89.9265
553.4700	89.9903
553.9521	89.7995
554.4343	89.4324
554.9164	89.0414
555.3985	88.7603
555.8806	88.6351
556.3627	88.6191
556.8448	88.6262
557.3270	88.6001
557.8091	88.5502
558.2912	88.5315
558.7733	88.5913
559.2554	88.7236
559.7375	88.8659
560.2197	88.9371
560.7018	88.8935
561.1839	88.7607
561.6660	88.6199
562.1481	88.5594
562.6302	88.6231
563.1124	88.787
563.5945	88.9765
564.0766	89.1147
564.5587	89.1742
565.0408	89.1968
565.5229	89.267
566.0051	89.4544
566.4872	89.7614
566.9693	90.111
567.4514	90.3865
567.9335	90.5001
568.4156	90.4438
568.8978	90.2874
569.3799	90.1249
569.8620	90.0095
570.3441	89.9253
570.8262	89.8136
571.3083	89.6304
571.7905	89.386
572.2726	89.141
572.7547	88.966
573.2368	88.9004
573.7189	88.9397
574.2010	89.0537
574.6832	89.2133
575.1653	89.401
575.6474	89.6014
576.1295	89.7885
576.6116	89.9296
577.0938	90.0029
577.5759	90.0095
578.0580	89.9622
578.5401	89.8624
579.0222	89.69
579.5043	89.4204
579.9865	89.0619
580.4686	88.6792
580.9507	88.3749
581.4328	88.2312
581.9149	88.2596
582.3970	88.3993
582.8792	88.5599
583.3613	88.6741
583.8434	88.7244
584.3255	88.7292
584.8076	88.7077
585.2897	88.6531
585.7719	88.5398
586.2540	88.3565
586.7361	88.1324
587.2182	87.9339
587.7003	87.8317
588.1824	87.8593
588.6646	87.9898
589.1467	88.1474
589.6288	88.2455
590.1109	88.224
590.5930	88.069
591.0751	87.8095
591.5573	87.5012
592.0394	87.2029
592.5215	86.9562
593.0036	86.7751
593.4857	86.6488
593.9678	86.55
594.4500	86.4468
594.9321	86.313
595.4142	86.139
595.8963	85.9368
596.3784	85.7357
596.8605	85.5692
597.3427	85.4566
597.8248	85.3876
598.3069	85.3151
598.7890	85.1598
599.2711	84.8285
599.7532	84.2416
600.2354	83.3636
600.7175	82.2283
601.1996	80.9461
601.6817	79.6878
602.1638	78.6477
602.6459	77.9951
603.1281	77.8273
603.6102	78.1342
604.0923	78.7921
604.5744	79.594
605.0565	80.3133
605.5386	80.7721
606.0208	80.8865
606.5029	80.6754
606.9850	80.2394
607.4671	79.7271
607.9492	79.2988
608.4313	79.0931
608.9135	79.1966
609.3956	79.6272
609.8777	80.3349
610.3598	81.2226
610.8419	82.1736
611.3240	83.0778
611.8062	83.8469
612.2883	84.4217
612.7704	84.7731
613.2525	84.9046
613.7346	84.8572
614.2167	84.7088
614.6989	84.5575
615.1810	84.4853
615.6631	84.5119
616.1452	84.5643
616.6273	84.4877
617.1094	84.1194
617.5916	83.4099
618.0737	82.5119
618.5558	81.7435
619.0379	81.4352
619.5200	81.7704
620.0021	82.71
620.4843	84.0119
620.9664	85.3292
621.4485	86.3534
621.9306	86.9395
622.4127	87.1371
622.8948	87.114
623.3770	87.0397
623.8591	87.0095
624.3412	87.0356
624.8233	87.086
625.3054	87.1272
625.7875	87.1424
626.2697	87.1257
626.7518	87.0722
627.2339	86.9829
627.7160	86.8774
628.1981	86.7973
628.6802	86.7892
629.1624	86.8756
629.6445	87.0364
630.1266	87.2146
630.6087	87.3444
631.0908	87.3816
631.5729	87.3171
632.0551	87.1695
632.5372	86.9678
633.0193	86.7389
633.5014	86.5059
633.9835	86.2934
634.4656	86.1293
634.9478	86.0402
635.4299	86.0428
635.9120	86.1376
636.3941	86.3082
636.8762	86.526
637.3583	86.7564
637.8405	86.9629
638.3226	87.1132
638.8047	87.1853
639.2868	87.1734
639.7689	87.0872
640.2510	86.9436
640.7332	86.7561
641.2153	86.5293
641.6974	86.2644
642.1795	85.9713
642.6616	85.6781
643.1437	85.4275
643.6259	85.2613
644.1080	85.1991
644.5901	85.2253
645.0722	85.2937
645.5543	85.346
646.0364	85.3369
646.5186	85.2485
647.0007	85.0889
647.4828	84.8802
647.9649	84.6466
648.4470	84.4089
648.9291	84.1884
649.4113	84.0098
649.8934	83.8979
650.3755	83.8674
650.8576	83.9144
651.3397	84.0152
651.8218	84.1343
652.3040	84.2379
652.7861	84.3052
653.2682	84.3317
653.7503	84.3247
654.2324	84.2932
654.7145	84.2422
655.1967	84.1712
655.6788	84.079
656.1609	83.9693
656.6430	83.8544
657.1251	83.7524
657.6072	83.6801
658.0894	83.6434
658.5715	83.6318
659.0536	83.6194
659.5357	83.5747
660.0178	83.475
660.4999	83.3168
660.9821	83.1158
661.4642	82.8978
661.9463	82.684
662.4284	82.4811
662.9105	82.2831
663.3926	82.0829
663.8748	81.8878
664.3569	81.7233
664.8390	81.6208
665.3211	81.5989
665.8032	81.6547
666.2853	81.763
666.7675	81.8638
667.2496	81.8152
667.7317	81.353
668.2138	80.4088
668.6959	79.6085
669.1780	79.3403
669.6602	79.346
670.1423	79.3769
670.6244	79.332
671.1065	79.1876
671.5886	78.9623
672.0707	78.7038
672.5529	78.4692
673.0350	78.3
673.5171	78.2068
673.9992	78.1735
674.4813	78.1702
674.9634	78.1639
675.4456	78.1231
675.9277	78.0206
676.4098	77.8369
676.8919	77.5647
677.3740	77.2137
677.8561	76.8109
678.3383	76.3951
678.8204	76.0057
679.3025	75.6699
679.7846	75.3933
680.2667	75.1582
680.7488	74.9309
681.2310	74.6744
681.7131	74.3624
682.1952	73.987
682.6773	73.5595
683.1594	73.1029
683.6415	72.6416
684.1237	72.1904
684.6058	71.7458
685.0879	71.2828
685.5700	70.7596
686.0521	70.1299
686.5342	69.3599
687.0164	68.4409
687.4985	67.391
687.9806	66.2443
688.4627	65.034
688.9448	63.7786
689.4269	62.4794
689.9091	61.1259
690.3912	59.7051
690.8733	58.2062
691.3554	56.6242
691.8375	54.9657
692.3196	53.26
692.8018	51.5722
693.2839	50.0056
693.7660	48.6878
694.2481	47.7384
694.7302	47.2304
695.2123	47.1614
695.6945	47.4478
696.1766	47.9452
696.6587	48.4907
697.1408	48.9511
697.6229	49.2662
698.1050	49.4744
698.5872	49.7136
699.0693	50.1943
699.5514	51.1474
700.0335	52.7568
700.5156	55.0961
700.9977	58.09
701.4799	61.5212
701.9620	65.0874
702.4441	68.4906
702.9262	71.519
703.4083	74.0876
703.8904	76.2252
704.3726	78.0243
704.8547	79.5836
705.3368	80.9684
705.8189	82.2015
706.3010	83.2801
706.7831	84.2004
707.2653	84.975
707.7474	85.634
708.2295	86.2115
708.7116	86.7304
709.1937	87.1928
709.6758	87.583
710.1580	87.8807
710.6401	88.0758
711.1222	88.1788
711.6043	88.2194
712.0864	88.2357
712.5685	88.2582
713.0507	88.2957
713.5328	88.3306
714.0149	88.3253
714.4970	88.2403
714.9791	88.0556
715.4612	87.7857
715.9434	87.4788
716.4255	87.1977
716.9076	86.9916
717.3897	86.8721
717.8718	86.8105
718.3539	86.7546
718.8361	86.6548
719.3182	86.4854
719.8003	86.2529
720.2824	85.989
720.7645	85.7322
721.2466	85.5097
721.7288	85.3329
722.2109	85.2031
722.6930	85.1176
723.1751	85.0695
723.6572	85.0432
724.1393	85.0136
724.6215	84.9515
725.1036	84.8328
725.5857	84.6468
726.0678	84.3972
726.5499	84.0995
727.0320	83.7757
727.5142	83.4487
727.9963	83.1371
728.4784	82.8489
728.9605	82.5802
729.4426	82.3187
729.9247	82.0531
730.4069	81.7844
730.8890	81.529
731.3711	81.3113
731.8532	81.148
732.3353	81.0339
732.8174	80.9393
733.2996	80.8217
733.7817	80.6429
734.2638	80.3823
734.7459	80.0387
735.2280	79.6224
735.7101	79.1465
736.1923	78.6252
736.6744	78.0762
737.1565	77.5227
737.6386	76.9875
738.1207	76.4838
738.6028	76.0081
739.0850	75.5448
739.5671	75.0789
740.0492	74.6066
740.5313	74.1338
741.0134	73.6651
741.4955	73.1913
741.9777	72.6895
742.4598	72.1369
742.9419	71.5281
743.4240	70.8789
743.9061	70.2134
744.3882	69.5429
744.8704	68.8535
745.3525	68.1128
745.8346	67.2912
746.3167	66.3805
746.7988	65.3968
747.2809	64.3663
747.7631	63.3069
748.2452	62.2189
748.7273	61.0893
749.2094	59.9028
749.6915	58.6528
750.1736	57.3476
750.6558	56.0144
751.1379	54.7023
751.6200	53.4808
752.1021	52.4247
752.5842	51.5879
753.0663	50.9786
753.5485	50.5542
754.0306	50.2479
754.5127	50.0149
754.9948	49.8688
755.4769	49.8824
755.9590	50.1484
756.4412	50.7285
756.9233	51.6267
757.4054	52.8063
757.8875	54.2385
758.3696	55.9438
758.8517	57.9906
759.3339	60.4457
759.8160	63.3061
760.2981	66.4575
760.7802	69.6861
761.2623	72.7396
761.7444	75.4035
762.2266	77.555
762.7087	79.1745
763.1908	80.3203
763.6729	81.0881
764.1550	81.5741
764.6371	81.8546
765.1193	81.9825
765.6014	81.9935
766.0835	81.9172
766.5656	81.7857
767.0477	81.6346
767.5298	81.4981
768.0120	81.3982
768.4941	81.3359
768.9762	81.2888
769.4583	81.2191
769.9404	81.0891
770.4225	80.8781
770.9047	80.591
771.3868	80.2551
771.8689	79.9067
772.3510	79.5722
772.8331	79.2568
773.3152	78.9454
773.7974	78.6163
774.2795	78.258
774.7616	77.8789
775.2437	77.5024
775.7258	77.1526
776.2079	76.8421
776.6901	76.5712
777.1722	76.3412
777.6543	76.17
778.1364	76.0969
778.6185	76.1687
779.1006	76.4133
779.5828	76.8171
780.0649	77.3222
780.5470	77.8467
781.0291	78.3195
781.5112	78.7069
781.9933	79.0176
782.4755	79.2861
782.9576	79.5483
783.4397	79.8255
783.9218	80.1239
784.4039	80.441
784.8860	80.7724
785.3682	81.11
785.8503	81.4376
786.3324	81.7311
786.8145	81.9661
787.2966	82.1291
787.7787	82.2221
788.2609	82.2578
788.7430	82.2508
789.2251	82.2124
789.7072	82.1552
790.1893	82.098
790.6714	82.0654
791.1536	82.075
791.6357	82.1234
792.1178	82.1814
792.5999	82.2077
793.0820	82.1736
793.5641	82.0818
794.0463	81.9667
794.5284	81.8745
795.0105	81.8387
795.4926	81.8663
795.9747	81.9419
796.4568	82.0429
796.9390	82.1527
797.4211	82.2649
797.9032	82.3767
798.3853	82.4831
798.8674	82.5774
799.3495	82.6585
799.8317	82.7374
800.3138	82.8349
800.7959	82.9688
801.2780	83.1394
801.7601	83.3231
802.2422	83.4817
802.7244	83.582
803.2065	83.6143
803.6886	83.5961
804.1707	83.5587
804.6528	83.5275
805.1349	83.5088
805.6171	83.4936
806.0992	83.4722
806.5813	83.448
807.0634	83.4381
807.5455	83.4608
808.0276	83.5202
808.5098	83.6007
808.9919	83.6753
809.4740	83.7213
809.9561	83.7305
810.4382	83.7078
810.9203	83.6612
811.4025	83.5938
811.8846	83.5049
812.3667	83.3987
812.8488	83.2913
813.3309	83.2084
813.8130	83.1723
814.2952	83.1874
814.7773	83.2352
815.2594	83.2827
815.7415	83.3013
816.2236	83.2826
816.7057	83.2414
817.1879	83.2024
817.6700	83.1824
818.1521	83.1783
818.6342	83.1706
819.1163	83.1389
819.5984	83.0782
820.0806	83.0041
820.5627	82.9433
821.0448	82.9172
821.5269	82.9306
822.0090	82.9698
822.4911	83.0116
822.9733	83.0332
823.4554	83.0189
823.9375	82.9626
824.4196	82.8685
824.9017	82.7533
825.3839	82.6444
825.8660	82.5732
826.3481	82.5606
826.8302	82.6048
827.3123	82.6793
827.7944	82.7463
828.2766	82.7776
828.7587	82.77
829.2408	82.7444
829.7229	82.7291
830.2050	82.7401
830.6871	82.7713
831.1693	82.7994
831.6514	82.801
832.1335	82.7667
832.6156	82.7059
833.0977	82.6393
833.5798	82.5854
834.0620	82.5513
834.5441	82.5311
835.0262	82.5118
835.5083	82.4817
835.9904	82.4374
836.4725	82.3844
836.9547	82.3335
837.4368	82.2943
837.9189	82.2696
838.4010	82.2549
838.8831	82.2438
839.3652	82.2346
839.8474	82.2355
840.3295	82.2612
840.8116	82.324
841.2937	82.4238
841.7758	82.5463
842.2579	82.6712
842.7401	82.7857
843.2222	82.8937
843.7043	83.0126
844.1864	83.1589
844.6685	83.3335
845.1506	83.5168
845.6328	83.6788
846.1149	83.7965
846.5970	83.8666
847.0791	83.9045
847.5612	83.9319
848.0433	83.9632
848.5255	83.999
849.0076	84.0313
849.4897	84.0504
849.9718	84.0493
850.4539	84.0213
850.9360	83.9553
851.4182	83.8354
851.9003	83.6462
852.3824	83.3812
852.8645	83.0482
853.3466	82.6677
853.8287	82.2687
854.3109	81.883
854.7930	81.5422
855.2751	81.2749
855.7572	81.1032
856.2393	81.0367
856.7214	81.0677
857.2036	81.1711
857.6857	81.3101
858.1678	81.4476
858.6499	81.5567
859.1320	81.6277
859.6141	81.6674
860.0963	81.6905
860.5784	81.7071
861.0605	81.7125
861.5426	81.6861
862.0247	81.6005
862.5068	81.4388
862.9890	81.2062
863.4711	80.9319
863.9532	80.6552
864.4353	80.4077
864.9174	80.2019
865.3995	80.0335
865.8817	79.8966
866.3638	79.7992
866.8459	79.7691
867.3280	79.8447
867.8101	80.0584
868.2922	80.4225
868.7744	80.9245
869.2565	81.5327
869.7386	82.2077
870.2207	82.9112
870.7028	83.6095
871.1849	84.2738
871.6671	84.8787
872.1492	85.4031
872.6313	85.8326
873.1134	86.1618
873.5955	86.3952
874.0776	86.5462
874.5598	86.6355
875.0419	86.6897
875.5240	86.7405
876.0061	86.8221
876.4882	86.9673
876.9703	87.1993
877.4525	87.5246
877.9346	87.9285
878.4167	88.3797
878.8988	88.8422
879.3809	89.2897
879.8630	89.7136
880.3452	90.12
880.8273	90.5174
881.3094	90.9045
881.7915	91.2668
882.2736	91.5844
882.7557	91.8434
883.2379	92.0436
883.7200	92.1951
884.2021	92.3083
884.6842	92.3861
885.1663	92.4242
885.6484	92.4184
886.1306	92.3716
886.6127	92.2962
887.0948	92.2078
887.5769	92.1184
888.0590	92.0318
888.5411	91.9444
889.0233	91.8504
889.5054	91.7451
889.9875	91.6265
890.4696	91.4948
890.9517	91.3501
891.4338	91.1927
891.9160	91.022
892.3981	90.8375
892.8802	90.6385
893.3623	90.4247
893.8444	90.196
894.3265	89.9516
894.8087	89.6903
895.2908	89.411
895.7729	89.115
896.2550	88.8077
896.7371	88.4975
897.2192	88.1917
897.7014	87.8907
898.1835	87.5853
898.6656	87.2597
899.1477	86.8996
899.6298	86.4993
900.1119	86.0655
900.5941	85.6137
901.0762	85.1631
901.5583	84.732
902.0404	84.3359
902.5225	83.9874
903.0046	83.6957
903.4868	83.4636
903.9689	83.2854
904.4510	83.1466
904.9331	83.0266
905.4152	82.9038
905.8973	82.7602
906.3795	82.5831
906.8616	82.3651
907.3437	82.1008
907.8258	81.7851
908.3079	81.4126
908.7900	80.9794
909.2722	80.4862
909.7543	79.9399
910.2364	79.3539
910.7185	78.7478
911.2006	78.1486
911.6827	77.5934
912.1649	77.1314
912.6470	76.8204
913.1291	76.7151
913.6112	76.8502
914.0933	77.2283
914.5754	77.8181
915.0576	78.5666
915.5397	79.4149
916.0218	80.3101
916.5039	81.2059
916.9860	82.0585
917.4681	82.8242
917.9503	83.4665
918.4324	83.9672
918.9145	84.3335
919.3966	84.5927
919.8787	84.7779
920.3608	84.913
920.8430	85.0074
921.3251	85.0593
921.8072	85.0646
922.2893	85.0214
922.7714	84.9302
923.2535	84.7919
923.7357	84.6078
924.2178	84.3806
924.6999	84.1145
925.1820	83.8107
925.6641	83.4641
926.1462	83.0633
926.6284	82.5974
927.1105	82.0653
927.5926	81.4808
928.0747	80.8685
928.5568	80.2565
929.0389	79.6694
929.5211	79.1287
930.0032	78.6582
930.4853	78.2868
930.9674	78.0468
931.4495	77.9679
931.9316	78.0716
932.4138	78.3708
932.8959	78.8708
933.3780	79.5688
933.8601	80.4477
934.3422	81.4684
934.8243	82.5698
935.3065	83.6794
935.7886	84.7334
936.2707	85.693
936.7528	86.5489
937.2349	87.3116
937.7170	87.9944
938.1992	88.6014
938.6813	89.1258
939.1634	89.5587
939.6455	89.8993
940.1276	90.16
940.6097	90.3642
941.0919	90.5393
941.5740	90.7094
942.0561	90.8905
942.5382	91.0888
943.0203	91.3009
943.5024	91.5166
943.9846	91.723
944.4667	91.9099
944.9488	92.0737
945.4309	92.2168
945.9130	92.3442
946.3951	92.4588
946.8773	92.5596
947.3594	92.6439
947.8415	92.7115
948.3236	92.768
948.8057	92.8242
949.2878	92.891
949.7700	92.9741
950.2521	93.0698
950.7342	93.1666
951.2163	93.2493
951.6984	93.3066
952.1805	93.3357
952.6627	93.3446
953.1448	93.3479
953.6269	93.3606
954.1090	93.3895
954.5911	93.4301
955.0732	93.4679
955.5554	93.4862
956.0375	93.4742
956.5196	93.4327
957.0017	93.3735
957.4838	93.3142
957.9659	93.2722
958.4481	93.2589
958.9302	93.2775
959.4123	93.3224
959.8944	93.3791
960.3765	93.427
960.8586	93.444
961.3408	93.413
961.8229	93.3275
962.3050	93.1945
962.7871	93.0317
963.2692	92.8615
963.7513	92.7037
964.2335	92.5704
964.7156	92.4647
965.1977	92.3811
965.6798	92.3097
966.1619	92.2398
966.6440	92.164
967.1262	92.0793
967.6083	91.9854
968.0904	91.8814
968.5725	91.7627
969.0546	91.6211
969.5367	91.4492
970.0189	91.2451
970.5010	91.0155
970.9831	90.774
971.4652	90.5359
971.9473	90.3122
972.4294	90.1055
972.9116	89.9097
973.3937	89.7129
973.8758	89.5029
974.3579	89.2719
974.8400	89.0216
975.3221	88.763
975.8043	88.5133
976.2864	88.2881
976.7685	88.0942
977.2506	87.9254
977.7327	87.7641
978.2148	87.5872
978.6970	87.3727
979.1791	87.103
979.6612	86.7659
980.1433	86.3527
980.6254	85.858
981.1075	85.2826
981.5897	84.6373
982.0718	83.9457
982.5539	83.2424
983.0360	82.5659
983.5181	81.9485
984.0002	81.4082
984.4824	80.9457
984.9645	80.5484
985.4466	80.1996
985.9287	79.8859
986.4108	79.5994
986.8929	79.3326
987.3751	79.0727
987.8572	78.7994
988.3393	78.4902
988.8214	78.1293
989.3035	77.7141
989.7856	77.2537
990.2678	76.7607
990.7499	76.2418
991.2320	75.6942
991.7141	75.1101
992.1962	74.4878
992.6783	73.8438
993.1605	73.2206
993.6426	72.6856
994.1247	72.3172
994.6068	72.182
995.0889	72.3086
995.5710	72.6727
996.0532	73.2053
996.5353	73.8251
997.0174	74.4786
997.4995	75.1638
997.9816	75.9183
998.4637	76.7732
998.9459	77.7023
999.4280	78.595
999.9101	79.2747
1000.3922	79.5517
1000.8743	79.2839
1001.3564	78.4158
1001.8386	76.9861
1002.3207	75.1143
1002.8028	72.9824
1003.2849	70.8166
1003.7670	68.8624
1004.2491	67.3446
1004.7313	66.4183
1005.2134	66.13
1005.6955	66.4133
1006.1776	67.1234
1006.6597	68.0972
1007.1418	69.207
1007.6240	70.385
1008.1061	71.6108
1008.5882	72.88
1009.0703	74.1773
